*******************************************************
GTC-OSIRIS-R500R spectra of A, B and G on 27 March 2014
*******************************************************
UNITS:				lambda in angstrom (A)
			flux in 10^{-17} ergs/cm^2/s/A
******************************************************* 
   	         flux
         -------------------
lambda     A     B      G
******************************
4850.009 6.840 10.502 4.528
4854.825 6.815 11.044 3.280
4859.642 6.910 11.929 3.012
4864.458 7.858 12.488 1.330
4869.275 8.214 13.147 0.762
4874.092 7.850 11.876 2.237
4878.908 7.566 11.812 2.236
4883.725 7.275 10.963 4.119
4888.541 7.852 12.253 0.752
4893.358 8.230 11.941 0.712
4898.174 8.767 12.231 0.861
4902.991 8.779 12.759 1.284
4907.808 9.423 12.541 1.190
4912.624 10.144 13.374 0.728
4917.441 9.916 13.707 1.182
4922.257 10.186 12.763 1.957
4927.074 10.399 12.826 2.553
4931.890 11.201 13.576 1.171
4936.707 11.706 14.069 0.891
4941.523 11.655 13.271 1.385
4946.340 11.672 13.108 2.006
4951.157 12.513 13.395 1.383
4955.973 12.304 13.518 1.933
4960.790 13.285 14.508 1.028
4965.606 14.133 14.267 1.925
4970.423 15.090 14.666 0.796
4975.239 16.013 15.071 1.346
4980.056 16.919 15.350 1.173
4984.872 18.314 15.369 2.375
4989.689 18.982 15.237 2.932
4994.506 20.062 16.454 1.451
4999.322 21.334 16.920 1.406
5004.139 21.558 16.500 2.184
5008.955 20.843 16.139 2.948
5013.772 19.770 16.568 1.830
5018.588 18.727 16.016 1.917
5023.405 17.138 15.555 1.841
5028.222 15.711 15.614 1.519
5033.038 15.218 15.696 0.998
5037.855 13.916 14.851 1.159
5042.671 13.292 14.901 2.010
5047.488 12.814 15.162 1.205
5052.304 11.868 14.492 1.650
5057.121 11.194 14.968 0.501
5061.937 10.615 14.345 1.281
5066.754 10.274 14.292 0.806
5071.571 9.523 14.221 0.623
5076.387 9.054 13.547 1.395
5081.204 8.440 13.374 1.608
5086.020 8.387 13.335 1.410
5090.837 7.956 13.201 1.416
5095.653 7.665 12.722 1.888
5100.470 7.499 12.716 1.651
5105.286 7.194 12.301 1.597
5110.103 7.159 12.594 0.908
5114.920 7.044 12.354 1.463
5119.736 6.733 12.003 1.564
5124.553 6.643 12.143 1.798
5129.369 6.672 12.075 1.571
5134.186 6.594 12.081 1.054
5139.002 6.692 12.280 1.253
5143.819 6.598 11.856 1.552
5148.636 6.290 11.420 1.758
5153.452 6.227 11.484 1.917
5158.269 6.267 11.396 1.696
5163.085 6.414 11.518 1.096
5167.902 6.200 11.382 1.355
5172.718 6.115 11.174 2.027
5177.535 6.365 11.368 1.082
5182.351 6.287 11.444 1.447
5187.168 6.194 11.302 1.396
5191.985 6.120 10.830 2.482
5196.801 6.247 11.368 1.371
5201.618 6.205 11.269 1.123
5206.434 5.931 10.853 2.305
5211.251 6.306 11.174 1.074
5216.067 6.321 11.400 1.269
5220.884 6.382 11.325 0.939
5225.700 6.324 11.368 1.299
5230.517 6.498 11.554 1.307
5235.334 6.401 11.327 1.178
5240.150 6.254 11.209 1.559
5244.967 6.445 11.039 1.565
5249.783 6.460 11.132 1.171
5254.600 6.422 11.125 1.208
5259.416 6.383 11.042 1.299
5264.233 6.498 11.088 1.201
5269.050 6.333 11.142 1.009
5273.866 6.290 10.922 1.603
5278.683 6.557 11.180 1.595
5283.499 6.683 11.416 1.252
5288.316 6.870 11.243 1.559
5293.132 6.973 11.529 1.225
5297.949 6.978 11.417 1.274
5302.765 6.803 11.401 1.591
5307.582 6.808 11.238 1.476
5312.399 6.444 11.124 1.655
5317.215 6.570 11.501 0.863
5322.032 6.524 11.206 1.462
5326.848 6.404 11.114 1.048
5331.665 6.464 11.088 1.410
5336.481 6.300 11.131 1.440
5341.298 6.374 11.061 1.238
5346.114 6.246 11.110 1.290
5350.931 6.263 11.002 1.517
5355.748 6.519 11.253 1.167
5360.564 6.537 11.012 1.301
5365.381 6.430 10.852 1.787
5370.197 6.329 10.672 1.742
5375.014 6.493 10.975 1.242
5379.830 6.440 10.906 1.773
5384.647 6.518 10.987 1.293
5389.464 6.386 10.781 1.220
5394.280 6.155 10.629 1.647
5399.097 6.290 10.819 1.297
5403.913 6.107 10.562 1.674
5408.730 5.936 10.509 1.573
5413.546 5.964 10.530 1.312
5418.363 5.788 10.397 1.618
5423.179 5.685 10.254 1.688
5427.996 5.641 10.245 1.531
5432.813 5.638 10.437 0.999
5437.629 5.358 10.260 1.325
5442.446 5.422 10.206 1.525
5447.262 5.349 10.355 1.517
5452.079 5.300 10.155 1.345
5456.895 5.287 10.136 1.451
5461.712 5.134 10.121 1.307
5466.528 5.163 9.995 1.024
5471.345 5.082 9.852 1.492
5476.162 5.273 10.032 1.195
5480.978 5.127 10.000 1.036
5485.795 5.024 9.865 1.630
5490.611 4.977 9.592 1.964
5495.428 4.913 9.737 1.595
5500.244 5.056 9.688 1.413
5505.061 5.267 9.762 0.993
5509.878 5.255 9.866 1.139
5514.694 5.210 9.942 1.163
5519.511 5.200 9.785 1.185
5524.327 5.221 9.795 1.027
5529.144 5.151 9.798 1.288
5533.960 5.293 9.583 1.152
5538.777 5.376 9.903 1.013
5543.593 5.212 9.536 1.590
5548.410 5.267 9.542 1.455
5553.227 5.414 9.782 0.963
5558.043 5.406 9.682 1.491
5562.860 5.282 9.549 1.267
5567.676 5.278 9.619 1.432
5572.493 5.303 9.949 1.085
5577.309 5.441 9.112 1.432
5582.126 5.157 9.349 1.862
5586.942 5.460 9.476 0.630
5591.759 5.504 9.446 1.152
5596.576 5.274 9.386 1.497
5601.392 5.145 9.348 1.732
5606.209 5.493 9.428 1.125
5611.025 5.464 9.523 1.160
5615.842 5.408 9.461 1.036
5620.658 5.557 9.524 1.000
5625.475 5.451 9.346 1.305
5630.292 5.592 9.263 1.361
5635.108 5.724 9.358 1.184
5639.925 5.483 9.326 1.751
5644.741 5.643 9.257 1.316
5649.558 5.518 9.145 1.616
5654.374 5.594 9.122 1.580
5659.191 5.676 9.328 1.439
5664.007 5.666 9.190 1.281
5668.824 5.617 9.168 1.341
5673.641 5.494 9.011 1.861
5678.457 5.611 9.204 1.408
5683.274 5.597 9.236 1.046
5688.090 5.535 9.292 1.010
5692.907 5.380 9.065 1.594
5697.723 5.478 9.215 1.209
5702.540 5.276 9.024 1.156
5707.357 5.244 8.884 1.277
5712.173 5.203 8.825 1.252
5716.990 5.103 8.982 1.619
5721.806 5.149 8.934 1.289
5726.623 5.103 8.904 1.218
5731.439 5.148 8.911 1.130
5736.256 5.044 8.639 1.584
5741.072 5.076 8.744 1.130
5745.889 5.140 8.719 1.120
5750.706 5.155 8.741 1.013
5755.522 5.135 8.744 1.362
5760.339 5.261 8.783 1.084
5765.155 5.217 8.628 0.943
5769.972 5.232 8.560 1.430
5774.788 5.215 8.662 1.669
5779.605 5.256 8.842 1.257
5784.421 5.318 8.769 1.361
5789.238 5.376 8.704 0.923
5794.055 5.256 8.634 0.945
5798.871 5.178 8.646 1.092
5803.688 5.193 8.623 1.188
5808.504 5.104 8.608 1.166
5813.321 5.153 8.601 1.171
5818.137 5.097 8.430 1.470
5822.954 5.061 8.387 1.275
5827.771 5.170 8.734 0.856
5832.587 5.241 8.602 1.205
5837.404 5.259 8.502 1.246
5842.220 5.270 8.569 1.140
5847.037 5.347 8.536 1.358
5851.853 5.247 8.453 1.335
5856.670 5.249 8.368 1.229
5861.486 5.336 8.614 0.973
5866.303 5.483 8.555 1.357
5871.120 5.447 8.835 1.171
5875.936 5.451 8.667 1.354
5880.753 5.473 8.597 1.994
5885.569 5.502 8.715 1.444
5890.386 5.327 8.426 1.886
5895.202 5.281 8.459 1.723
5900.019 5.386 8.659 1.358
5904.835 5.298 8.541 1.574
5909.652 5.277 8.535 1.392
5914.469 5.213 8.231 1.528
5919.285 5.121 8.271 1.584
5924.102 5.270 8.209 1.400
5928.918 5.146 8.131 1.498
5933.735 5.147 8.065 1.778
5938.551 5.262 8.219 1.330
5943.368 5.347 8.156 1.340
5948.185 5.320 8.282 1.243
5953.001 5.450 8.277 1.347
5957.818 5.460 8.234 1.330
5962.634 5.559 8.273 1.291
5967.451 5.585 8.155 1.369
5972.267 5.666 8.124 1.415
5977.084 5.778 8.144 1.432
5981.900 6.017 8.387 0.988
5986.717 6.070 8.286 1.351
5991.534 6.179 8.277 1.471
5996.350 6.176 8.322 1.455
6001.167 6.277 8.465 1.328
6005.983 6.314 8.395 1.288
6010.800 6.363 8.515 1.084
6015.616 6.512 8.458 1.321
6020.433 6.468 8.472 1.293
6025.249 6.414 8.407 1.343
6030.066 6.344 8.252 1.437
6034.883 6.360 8.268 1.567
6039.699 6.415 8.366 1.362
6044.516 6.415 8.535 1.291
6049.332 6.241 8.363 1.640
6054.149 6.344 8.371 1.453
6058.965 6.586 8.551 1.174
6063.782 6.474 8.417 1.489
6068.599 6.518 8.348 1.517
6073.415 6.643 8.384 1.564
6078.232 6.835 8.510 1.568
6083.048 6.763 8.310 1.511
6087.865 7.083 8.445 1.338
6092.681 7.230 8.547 1.327
6097.498 7.359 8.332 1.528
6102.314 7.549 8.441 1.780
6107.131 7.747 8.439 1.699
6111.948 8.076 8.666 1.307
6116.764 8.124 8.534 1.516
6121.581 8.386 8.674 1.698
6126.397 8.339 8.647 1.383
6131.214 8.600 8.730 1.497
6136.030 8.856 8.909 1.520
6140.847 8.809 8.737 1.401
6145.663 9.080 8.800 1.179
6150.480 9.293 8.871 1.082
6155.297 9.523 8.753 1.460
6160.113 9.715 8.828 1.425
6164.930 9.776 8.843 1.404
6169.746 9.714 8.903 1.289
6174.563 9.435 8.685 1.395
6179.379 9.208 8.724 1.499
6184.196 8.873 8.500 1.581
6189.013 8.510 8.630 1.146
6193.829 8.254 8.563 1.009
6198.646 8.018 8.354 1.245
6203.462 7.704 8.280 1.465
6208.279 7.414 8.336 1.218
6213.095 7.084 8.079 1.341
6217.912 6.948 7.944 1.481
6222.728 6.774 8.017 0.967
6227.545 6.479 7.855 1.330
6232.362 6.159 7.695 1.477
6237.178 6.062 7.646 1.387
6241.995 5.935 7.638 1.351
6246.811 5.702 7.570 1.242
6251.628 5.624 7.557 1.319
6256.444 5.513 7.456 1.485
6261.261 5.393 7.485 1.390
6266.077 5.314 7.384 1.545
6270.894 5.182 7.426 1.589
6275.711 5.032 7.246 1.876
6280.527 5.059 7.317 1.445
6285.344 5.029 7.109 1.613
6290.160 4.801 6.987 1.994
6294.977 4.793 7.128 1.619
6299.793 4.817 7.164 1.350
6304.610 4.619 6.957 1.430
6309.427 4.715 7.039 0.871
6314.243 4.683 6.961 0.984
6319.060 4.620 6.919 1.181
6323.876 4.593 7.019 1.083
6328.693 4.551 6.931 1.443
6333.509 4.601 6.992 1.321
6338.326 4.584 6.969 1.575
6343.142 4.552 6.940 1.500
6347.959 4.468 6.949 1.539
6352.776 4.513 6.956 1.428
6357.592 4.370 6.899 1.412
6362.409 4.452 6.759 1.374
6367.225 4.345 6.857 1.249
6372.042 4.462 6.901 1.069
6376.858 4.367 6.762 1.162
6381.675 4.427 6.852 1.205
6386.492 4.412 6.901 1.043
6391.308 4.318 6.806 1.397
6396.125 4.288 6.635 1.777
6400.941 4.331 6.835 1.558
6405.758 4.353 6.820 1.521
6410.574 4.243 6.763 1.747
6415.391 4.185 6.503 2.200
6420.207 4.317 6.613 1.914
6425.024 4.352 6.736 1.749
6429.841 4.292 6.620 1.999
6434.657 4.330 6.683 1.728
6439.474 4.302 6.707 1.722
6444.290 4.391 6.626 1.868
6449.107 4.423 6.687 1.904
6453.923 4.350 6.723 1.842
6458.740 4.339 6.583 1.819
6463.556 4.395 6.600 1.787
6468.373 4.390 6.597 1.757
6473.190 4.358 6.580 1.833
6478.006 4.428 6.548 1.800
6482.823 4.399 6.513 1.818
6487.639 4.306 6.523 1.993
6492.456 4.438 6.659 1.603
6497.272 4.344 6.623 1.729
6502.089 4.342 6.442 1.962
6506.906 4.369 6.454 1.773
6511.722 4.216 6.390 1.993
6516.539 4.340 6.439 1.662
6521.355 4.301 6.309 1.758
6526.172 4.281 6.326 1.717
6530.988 4.329 6.390 1.598
6535.805 4.334 6.365 1.672
6540.621 4.334 6.272 1.993
6545.438 4.312 6.422 1.652
6550.255 4.237 6.239 1.909
6555.071 4.247 6.228 1.928
6559.888 4.219 6.258 1.986
6564.704 4.167 6.232 1.957
6569.521 4.169 6.194 1.910
6574.337 4.222 6.157 1.888
6579.154 4.239 6.192 1.795
6583.970 4.204 6.230 1.634
6588.787 4.205 6.135 1.799
6593.604 4.221 6.172 1.653
6598.420 4.179 6.213 1.717
6603.237 4.201 6.189 1.704
6608.053 4.215 6.146 1.950
6612.870 4.217 6.207 1.930
6617.686 4.269 6.136 1.814
6622.503 4.315 6.229 1.904
6627.320 4.356 6.323 1.699
6632.136 4.367 6.229 1.754
6636.953 4.461 6.225 1.606
6641.769 4.522 6.325 1.750
6646.586 4.555 6.330 1.742
6651.402 4.500 6.280 1.793
6656.219 4.550 6.266 1.823
6661.035 4.636 6.387 1.708
6665.852 4.662 6.274 1.909
6670.669 4.769 6.454 1.747
6675.485 4.839 6.413 1.936
6680.302 4.815 6.416 1.829
6685.118 4.887 6.472 1.738
6689.935 4.812 6.396 1.824
6694.751 4.790 6.275 1.930
6699.568 4.793 6.381 1.830
6704.384 4.726 6.372 1.786
6709.201 4.759 6.273 1.801
6714.018 4.829 6.314 1.782
6718.834 4.750 6.287 1.883
6723.651 4.759 6.265 2.015
6728.467 4.739 6.362 1.832
6733.284 4.744 6.238 1.938
6738.100 4.687 6.257 2.047
6742.917 4.701 6.247 1.926
6747.734 4.656 6.296 1.715
6752.550 4.597 6.220 1.918
6757.367 4.594 6.166 2.020
6762.183 4.547 6.153 2.014
6767.000 4.587 6.178 1.854
6771.816 4.511 6.080 1.952
6776.633 4.491 6.089 2.027
6781.449 4.460 6.062 1.884
6786.266 4.476 6.071 1.806
6791.083 4.465 6.019 1.774
6795.899 4.346 5.982 1.917
6800.716 4.412 6.018 1.843
6805.532 4.398 5.916 1.809
6810.349 4.312 5.901 1.900
6815.165 4.378 5.916 1.802
6819.982 4.297 5.880 1.651
6824.798 4.180 5.871 1.935
6829.615 4.196 5.797 1.937
6834.432 4.231 5.763 1.957
6839.248 4.167 5.687 2.101
6844.065 4.177 5.830 1.959
6848.881 4.164 5.826 1.920
6853.698 4.138 5.779 1.970
6858.514 4.137 5.742 1.599
6863.331 3.917 5.438 1.822
6868.148 3.795 5.319 1.658
6872.964 3.796 5.318 1.681
6877.781 3.794 5.431 2.011
6882.597 3.923 5.538 2.096
6887.414 4.053 5.609 1.791
6892.230 3.940 5.460 1.857
6897.047 3.915 5.377 1.870
6901.863 3.920 5.524 1.740
6906.680 3.916 5.432 1.607
6911.497 3.932 5.523 1.544
6916.313 3.999 5.422 1.762
6921.130 3.916 5.340 1.834
6925.946 3.854 5.369 1.737
6930.763 3.823 5.320 1.859
6935.579 3.850 5.232 2.068
6940.396 3.825 5.280 1.912
6945.212 3.813 5.317 1.797
6950.029 3.765 5.224 2.018
6954.846 3.773 5.301 1.936
6959.662 3.808 5.300 1.797
6964.479 3.822 5.274 1.783
6969.295 3.805 5.228 1.955
6974.112 3.763 5.233 1.831
6978.928 3.845 5.265 1.884
6983.745 3.849 5.345 1.777
6988.562 3.851 5.287 1.745
6993.378 3.838 5.248 2.127
6998.195 3.869 5.202 2.060
7003.011 3.879 5.202 2.089
7007.828 3.871 5.128 2.304
7012.644 3.916 5.334 1.801
7017.461 3.815 5.153 1.985
7022.277 3.893 5.284 1.831
7027.094 3.894 5.208 1.826
7031.911 3.819 5.101 1.935
7036.727 3.839 5.194 1.775
7041.544 3.792 5.147 1.902
7046.360 3.813 5.193 1.743
7051.177 3.765 5.117 1.962
7055.993 3.928 5.112 2.029
7060.810 3.823 5.086 2.251
7065.627 3.860 5.114 2.201
7070.443 3.823 5.142 1.976
7075.260 3.795 5.156 1.946
7080.076 3.810 5.090 2.128
7084.893 3.769 5.161 1.950
7089.709 3.718 5.133 2.064
7094.526 3.730 5.061 2.066
7099.342 3.675 5.034 2.166
7104.159 3.658 4.957 2.291
7108.976 3.698 5.107 2.021
7113.792 3.772 5.136 1.674
7118.609 3.692 4.929 2.302
7123.425 3.739 4.983 2.113
7128.242 3.643 4.911 2.140
7133.058 3.694 5.000 2.107
7137.875 3.705 4.989 2.063
7142.691 3.748 4.932 2.004
7147.508 3.787 5.004 1.811
7152.325 3.749 4.876 2.121
7157.141 3.683 4.846 2.053
7161.958 3.703 4.762 1.970
7166.774 3.709 4.791 1.907
7171.591 3.609 4.640 2.097
7176.407 3.565 4.635 2.008
7181.224 3.578 4.605 1.937
7186.041 3.580 4.584 1.944
7190.857 3.503 4.610 2.026
7195.674 3.431 4.541 2.056
7200.490 3.471 4.549 2.039
7205.307 3.496 4.537 2.166
7210.123 3.482 4.567 2.133
7214.940 3.584 4.668 1.880
7219.756 3.559 4.564 2.121
7224.573 3.534 4.550 2.124
7229.390 3.438 4.524 2.062
7234.206 3.416 4.552 2.006
7239.023 3.431 4.531 2.133
7243.839 3.465 4.514 2.018
7248.656 3.446 4.458 2.217
7253.472 3.542 4.564 2.029
7258.289 3.499 4.587 1.728
7263.105 3.590 4.594 1.915
7267.922 3.545 4.428 2.049
7272.739 3.450 4.434 2.086
7277.555 3.588 4.574 2.014
7282.372 3.580 4.600 1.948
7287.188 3.638 4.532 2.043
7292.005 3.639 4.588 2.061
7296.821 3.664 4.648 1.988
7301.638 3.620 4.532 2.205
7306.455 3.678 4.522 1.881
7311.271 3.786 4.543 1.994
7316.088 3.766 4.543 2.195
7320.904 3.752 4.502 2.132
7325.721 3.755 4.638 2.128
7330.537 3.812 4.538 2.157
7335.354 3.910 4.688 2.082
7340.170 3.823 4.621 2.371
7344.987 3.876 4.758 2.217
7349.804 3.896 4.597 2.364
7354.620 3.988 4.797 2.035
7359.437 3.952 4.630 2.167
7364.253 3.918 4.663 2.309
7369.070 3.977 4.649 2.232
7373.886 3.984 4.729 2.229
7378.703 3.988 4.728 2.163
7383.519 4.078 4.767 2.020
7388.336 4.064 4.731 2.113
7393.153 4.094 4.685 2.252
7397.969 4.047 4.668 2.352
7402.786 4.008 4.760 2.271
7407.602 4.113 4.754 2.318
7412.419 4.125 4.749 2.244
7417.235 4.143 4.762 2.190
7422.052 4.151 4.728 2.486
7426.869 4.167 4.729 2.410
7431.685 4.158 4.651 2.425
7436.502 4.225 4.757 2.287
7441.318 4.217 4.793 2.238
7446.135 4.191 4.731 2.361
7450.951 4.222 4.717 2.290
7455.768 4.226 4.751 2.167
7460.584 4.213 4.704 2.225
7465.401 4.278 4.734 2.135
7470.218 4.243 4.737 2.134
7475.034 4.271 4.705 2.317
7479.851 4.272 4.614 2.314
7484.667 4.255 4.790 2.335
7489.484 4.283 4.744 2.304
7494.300 4.258 4.741 2.090
7499.117 4.341 4.787 2.041
7503.933 4.385 4.803 2.055
7508.750 4.328 4.834 2.138
7513.567 4.246 4.700 2.397
7518.383 4.388 4.782 2.090
7523.200 4.361 4.704 2.258
7528.016 4.353 4.715 2.161
7532.833 4.305 4.782 2.234
7537.649 4.308 4.725 2.208
7542.466 4.339 4.755 2.123
7547.283 4.335 4.672 2.255
7552.099 4.374 4.718 2.157
7556.916 4.291 4.723 2.073
7561.732 4.214 4.663 2.227
7566.549 4.214 4.699 2.181
7571.365 4.138 4.603 2.232
7576.182 4.225 4.794 2.160
7580.998 4.340 4.909 2.153
7585.815 4.205 4.702 2.248
7590.632 3.820 4.303 2.248
7595.448 3.399 3.731 1.557
7600.265 2.722 3.002 1.630
7605.081 2.759 3.034 1.779
7609.898 3.725 4.064 2.171
7614.714 4.478 4.911 2.465
7619.531 4.689 5.247 2.319
7624.347 4.238 4.731 2.543
7629.164 3.972 4.399 2.176
7633.981 3.881 4.278 2.100
7638.797 3.932 4.330 2.316
7643.614 4.148 4.578 2.499
7648.430 4.258 4.719 2.231
7653.247 4.310 4.766 2.196
7658.063 4.427 4.879 2.067
7662.880 4.248 4.769 2.072
7667.697 4.212 4.747 2.230
7672.513 4.175 4.651 2.332
7677.330 4.177 4.540 2.260
7682.146 4.145 4.500 2.188
7686.963 4.066 4.408 2.278
7691.779 4.066 4.375 2.306
7696.596 4.125 4.477 2.182
7701.412 4.175 4.365 2.244
7706.229 4.038 4.326 2.399
7711.046 4.095 4.352 2.286
7715.862 4.086 4.479 2.132
7720.679 4.122 4.495 2.150
7725.495 4.103 4.347 2.404
7730.312 4.094 4.445 2.266
7735.128 4.151 4.461 2.285
7739.945 4.081 4.418 2.431
7744.761 4.177 4.396 2.494
7749.578 4.163 4.413 2.377
7754.395 4.132 4.468 2.147
7759.211 4.147 4.368 2.339
7764.028 4.087 4.365 2.274
7768.844 4.144 4.336 2.466
7773.661 4.215 4.465 2.082
7778.477 4.173 4.443 2.253
7783.294 4.249 4.403 2.199
7788.111 4.279 4.478 2.082
7792.927 4.216 4.416 2.223
7797.744 4.267 4.525 2.221
7802.560 4.168 4.404 2.173
7807.377 4.233 4.413 2.115
7812.193 4.252 4.387 1.972
7817.010 4.256 4.568 1.775
7821.826 4.334 4.398 2.181
7826.643 4.185 4.279 2.210
7831.460 4.419 4.461 2.049
7836.276 4.271 4.422 2.217
7841.093 4.364 4.444 2.225
7845.909 4.349 4.388 2.192
7850.726 4.420 4.378 1.936
7855.542 4.347 4.394 2.008
7860.359 4.174 4.297 2.158
7865.176 4.243 4.330 2.184
7869.992 4.242 4.318 2.423
7874.809 4.280 4.416 2.305
7879.625 4.261 4.314 2.370
7884.442 4.216 4.256 2.274
7889.258 4.281 4.256 2.350
7894.075 4.216 4.147 2.597
7898.891 4.210 4.309 2.068
7903.708 4.237 4.402 1.938
7908.525 4.226 4.345 2.254
7913.341 4.149 4.283 2.292
7918.158 4.132 4.313 2.181
7922.974 4.145 4.471 2.005
7927.791 4.208 4.266 2.203
7932.607 4.121 4.166 2.507
7937.424 4.253 4.320 2.160
7942.240 4.190 4.281 2.253
7947.057 4.160 4.217 2.381
7951.874 4.263 4.283 2.459
7956.690 4.327 4.235 2.271
7961.507 4.284 4.210 2.301
7966.323 4.336 4.224 2.143
7971.140 4.280 4.353 2.065
7975.956 4.302 4.338 2.232
7980.773 4.397 4.305 1.873
7985.590 4.328 4.155 2.359
7990.406 4.255 4.143 2.371
7995.223 4.266 4.286 2.018
8000.039 4.232 4.249 2.109
8004.856 4.235 4.134 2.345
8009.672 4.284 4.258 2.112
8014.489 4.336 4.233 2.002
8019.305 4.396 4.170 1.982
8024.122 4.372 4.210 1.925
8028.939 4.285 4.142 2.198
8033.755 4.325 4.277 1.912
8038.572 4.344 4.327 1.947
8043.388 4.258 4.177 2.155
8048.205 4.310 4.167 2.062
8053.021 4.290 4.157 2.186
8057.838 4.283 4.221 2.139
8062.654 4.236 4.143 2.058
8067.471 4.225 4.097 2.104
8072.288 4.234 4.111 2.213
8077.104 4.163 4.079 2.297
8081.921 4.281 4.215 1.961
8086.737 4.268 4.176 1.993
8091.554 4.269 4.112 2.198
8096.370 4.224 4.062 2.177
8101.187 4.209 4.110 2.122
8106.004 4.169 4.070 2.119
8110.820 4.218 4.036 2.043
8115.637 4.085 3.961 2.122
8120.453 4.050 3.985 2.089
8125.270 4.079 3.923 2.198
8130.086 3.984 3.920 2.159
8134.903 3.936 3.857 2.026
8139.719 3.965 3.821 2.092
8144.536 3.880 3.779 2.111
8149.353 3.809 3.782 1.989
8154.169 3.781 3.741 2.065
8158.986 3.820 3.762 1.871
8163.802 3.853 3.763 1.851
8168.619 3.821 3.697 2.131
8173.435 3.902 3.912 1.832
8178.252 3.896 3.910 1.820
8183.068 3.879 3.755 2.098
8187.885 3.850 3.782 1.962
8192.702 3.828 3.846 2.047
8197.518 3.874 3.858 1.968
8202.335 3.957 3.888 1.915
8207.151 3.898 3.909 1.891
8211.968 3.904 3.849 1.978
8216.784 3.838 3.721 2.012
8221.601 3.774 3.699 1.925
8226.418 3.791 3.702 1.875
8231.234 3.886 3.749 1.709
8236.051 3.874 3.809 1.843
8240.867 3.848 3.880 1.918
8245.684 3.873 3.813 1.966
8250.500 3.829 3.768 2.170
8255.317 3.854 3.814 1.812
8260.133 3.817 3.764 1.940
8264.950 3.879 3.779 2.050
8269.767 3.725 3.651 2.084
8274.583 3.772 3.719 1.998
8279.400 3.811 3.691 1.807
8284.216 3.934 3.883 1.565
8289.033 3.739 3.852 1.649
8293.849 3.785 3.541 2.096
8298.666 3.760 3.846 1.748
8303.482 3.827 3.771 1.704
8308.299 3.760 3.755 1.796
8313.116 3.777 3.805 1.698
8317.932 3.779 3.754 1.797
8322.749 3.756 3.694 1.941
8327.565 3.726 3.749 1.898
8332.382 3.763 3.780 1.946
8337.198 3.813 3.792 1.926
8342.015 3.754 3.881 1.934
8346.832 3.712 3.837 2.057
8351.648 3.691 3.733 1.949
8356.465 3.738 3.743 2.064
8361.281 3.865 3.750 2.092
8366.098 3.786 3.796 1.916
8370.914 3.865 3.910 1.679
8375.731 3.842 3.770 1.860
8380.547 3.757 3.743 2.220
8385.364 3.861 3.735 2.318
8390.181 3.795 3.738 2.110
8394.997 3.784 3.659 2.221
8399.814 3.772 3.802 1.980
8404.630 3.846 3.821 1.890
8409.447 3.730 3.717 2.161
8414.263 3.718 3.601 2.341
8419.080 3.850 3.669 2.196
8423.896 3.856 3.790 2.251
8428.713 3.842 3.772 2.125
8433.530 3.860 3.931 1.978
8438.346 3.947 3.917 2.037
8443.163 3.902 3.767 1.949
8447.979 3.758 3.676 2.281
8452.796 3.860 3.679 2.259
8457.612 3.868 3.665 2.128
8462.429 3.861 3.827 1.824
8467.246 3.912 3.853 1.863
8472.062 3.945 3.771 1.968
8476.879 3.783 3.599 2.409
8481.695 3.861 3.752 2.088
8486.512 3.931 3.805 1.904
8491.328 3.875 3.695 2.131
8496.145 3.844 3.826 2.124
8500.961 3.698 3.784 2.194
8505.778 3.720 3.658 2.271
8510.595 3.684 3.735 2.091
8515.411 3.710 3.675 2.261
8520.228 3.707 3.681 2.225
8525.044 3.649 3.730 2.249
8529.861 3.584 3.690 2.255
8534.677 3.623 3.619 2.256
8539.494 3.627 3.578 2.361
8544.311 3.536 3.625 2.238
8549.127 3.472 3.661 2.189
8553.944 3.425 3.464 2.435
8558.760 3.440 3.656 1.907
8563.577 3.461 3.602 2.154
8568.393 3.419 3.463 2.315
8573.210 3.443 3.632 1.899
8578.026 3.438 3.523 2.078
8582.843 3.433 3.640 1.863
8587.660 3.353 3.450 2.313
8592.476 3.461 3.591 2.181
8597.293 3.375 3.546 2.137
8602.109 3.411 3.495 2.055
8606.926 3.443 3.466 2.236
8611.742 3.375 3.442 2.241
8616.559 3.299 3.495 2.085
8621.375 3.390 3.580 2.114
8626.192 3.502 3.604 1.989
8631.009 3.516 3.471 2.022
8635.825 3.495 3.450 2.171
8640.642 3.366 3.418 2.209
8645.458 3.345 3.474 2.184
8650.275 3.613 3.506 1.990
8655.091 3.530 3.370 2.273
8659.908 3.541 3.452 2.200
8664.725 3.511 3.543 1.980
8669.541 3.442 3.394 2.175
8674.358 3.499 3.299 2.533
8679.174 3.534 3.486 1.987
8683.991 3.653 3.619 2.089
8688.807 3.541 3.556 2.195
8693.624 3.620 3.595 2.171
8698.440 3.614 3.512 2.292
8703.257 3.547 3.458 2.317
8708.074 3.570 3.470 2.452
8712.890 3.655 3.518 2.379
8717.707 3.690 3.508 2.307
8722.523 3.702 3.582 2.144
8727.340 3.705 3.619 2.013
8732.156 3.682 3.553 2.324
8736.973 3.798 3.661 2.165
8741.789 3.780 3.659 2.016
8746.606 3.831 3.697 2.009
8751.423 3.839 3.726 2.260
8756.239 3.843 3.715 2.362
8761.056 3.802 3.482 2.666
8765.872 3.976 3.478 2.623
8770.689 3.810 3.608 2.775
8775.505 3.933 3.785 1.699
8780.322 3.924 3.731 1.883
8785.139 3.964 3.454 2.270
8789.955 3.938 3.537 2.239
8794.772 3.941 3.530 2.266
8799.588 3.994 3.467 2.061
8804.405 3.936 3.589 2.063
8809.221 4.004 3.552 2.290
8814.038 4.094 3.652 2.173
8818.854 4.275 3.772 2.307
8823.671 4.158 3.586 2.581
8828.488 4.117 3.754 1.986
8833.304 4.081 3.478 2.732
8838.121 4.238 3.644 2.254
8842.937 4.188 3.608 2.377
8847.754 4.259 3.591 1.995
8852.570 4.263 3.812 1.708
8857.387 4.284 3.660 2.032
8862.203 4.244 3.557 2.326
8867.020 4.327 3.781 2.032
8871.837 4.307 3.711 2.183
8876.653 4.318 3.727 2.150
8881.470 4.413 3.754 1.914
8886.286 4.376 3.711 1.846
8891.103 4.354 3.609 1.849
8895.919 4.397 3.599 2.200
8900.736 4.434 3.647 2.224
8905.553 4.527 3.757 1.879
8910.369 4.624 3.803 1.725
8915.186 4.575 3.513 2.549
8920.002 4.639 3.538 2.485
8924.819 4.582 3.548 2.524
8929.635 4.618 3.740 2.244
8934.452 4.655 3.533 2.422
8939.268 4.546 3.591 2.371
8944.085 4.610 3.623 2.505
8948.902 4.586 3.550 2.145
8953.718 4.482 3.454 2.035
8958.535 4.443 3.461 2.043
8963.351 4.462 3.462 1.881
8968.168 4.602 3.543 1.749
8972.984 4.693 3.627 1.753
8977.801 4.760 3.478 1.994
8982.617 4.849 3.418 1.930
8987.434 4.909 3.493 1.860
8992.251 5.085 3.586 1.705
8997.067 5.204 3.564 1.754
9001.884 5.315 3.496 2.035
9006.700 5.576 3.552 1.998
9011.517 5.702 3.517 2.277
9016.333 6.114 3.760 1.708
9021.150 6.229 3.586 2.127
9025.967 6.518 3.871 1.987
9030.783 6.739 4.049 1.907
9035.600 7.008 4.152 1.894
9040.416 6.993 3.928 2.375
9045.233 7.133 3.880 2.199
9050.049 7.150 4.025 2.026
9054.866 7.028 4.047 2.062
9059.682 6.982 4.135 1.721
9064.499 6.742 4.036 1.827
9069.316 6.490 3.877 1.912
9074.132 6.233 3.829 2.026
9078.949 6.064 3.748 2.239
9083.765 6.007 3.771 1.877
9088.582 5.790 3.655 1.963
9093.398 5.636 3.631 1.890
9098.215 5.395 3.661 1.963
9103.031 5.159 3.500 2.402
9107.848 5.123 3.665 2.047
9112.665 4.988 3.676 1.857
9117.481 4.769 3.586 1.846
9122.298 4.638 3.458 2.056
9127.114 4.461 3.366 2.117
9131.931 4.357 3.275 2.076
9136.747 4.260 3.256 1.947
9141.564 4.114 3.330 1.872
9146.381 4.077 3.309 1.779
9151.197 4.000 3.153 2.014
9156.014 3.829 3.115 2.016
9160.830 3.878 3.120 1.747
9165.647 3.825 3.130 1.851
9170.463 3.683 3.173 1.705
9175.280 3.706 3.152 1.912
9180.096 3.596 3.044 2.090
9184.913 3.644 3.105 2.082
9189.730 3.581 3.089 2.172
9194.546 3.654 3.182 2.009
9199.363 3.743 3.192 2.070
9204.179 3.659 3.163 2.060
9208.996 3.656 3.182 2.017
9213.812 3.577 3.134 2.160
9218.629 3.628 3.196 1.976
9223.446 3.680 3.163 1.727
9228.262 3.553 3.002 1.985
9233.079 3.528 3.043 2.115
9237.895 3.410 3.028 2.295
9242.712 3.371 2.994 2.125
9247.528 3.380 3.111 1.926
9252.345 3.310 3.057 2.089
9257.161 3.380 3.076 2.026
